 Duration(s) Distance(steps)     Force(N)  Amperage(A)
       2.160         200.000      207.510      140.360
       2.319         400.000      193.990      145.960
       2.424         600.000      210.190      149.640
       2.564         800.000      235.440      153.080
       2.705        1000.000      230.160      154.090
       3.032        1200.000      232.610      150.590
       3.062        1400.000      242.810      151.290
       3.167        1600.000      240.590      152.410
       3.257        1800.000      244.820      152.330
       3.390        2000.000      270.430      148.950
       3.531        2200.000      236.740      148.890
       3.690        2400.000      259.540      149.590
       3.797        2600.000      264.510      149.950
       3.959        2800.000      248.880      146.920
       4.136        3000.000      260.530      146.200
       4.220        3200.000      270.080      146.720
       4.355        3400.000      262.600      146.860
       4.496        3600.000      272.890      144.050
       4.636        3800.000      247.290      143.790
       4.762        4000.000      239.850      144.630
       4.901        4200.000      259.760      144.250
       5.094        4400.000      266.880      141.680
       5.184        4600.000      229.660      141.100
       5.323        4800.000      245.240      141.840
       5.496        5000.000      224.990      141.150
       5.592        5200.000      227.970      139.260
       5.728        5400.000      278.590      138.140
       5.868        5600.000      256.350      138.890
       6.009        5800.000      261.750      138.760
       6.149        6000.000      305.240      136.330
       6.323        6200.000      237.690      135.230
       6.414        6400.000      291.120      136.940
       6.552        6600.000      226.460      135.990
       6.971        6800.000      226.700      133.900
       7.002        7000.000      278.910      133.030
       7.043        7200.000      233.660      133.700
       7.210        7400.000      236.950      134.200
       7.349        7600.000      208.740      131.520
       7.382        7800.000      257.170      130.440
       7.537        8000.000      261.510      131.120
       7.658        8200.000      250.040      131.030
       7.812        8400.000      185.840      128.740
       7.940        8600.000      181.220      127.350
       8.064        8800.000      257.200      128.920
       8.240        9000.000      256.490      128.290
       8.344        9200.000      249.960      126.790
       8.485        9400.000      268.660      125.400
       8.610        9600.000      253.390      126.770
       8.781        9800.000      272.320      125.930
       8.892       10000.000      193.900      123.790
       9.030       10200.000      195.420      122.850
       9.286       10400.000      222.160      124.110
       9.323       10600.000      230.270      123.400
       9.451       10800.000      196.200      121.700
       9.578       11000.000      211.680      120.450
       9.730       11200.000      204.160      121.840
       9.857       11400.000      195.880      121.240
      10.000       11600.000      232.610      119.330
      10.138       11800.000      234.950      118.630
      10.280       12000.000      263.740      119.300
      10.406       12200.000      215.540      118.690
      10.549       12400.000      242.730      116.580
      10.686       12600.000      231.980      115.570
      10.826       12800.000      172.030      117.950
      10.966       13000.000      213.860      116.520
      11.090       13200.000      194.050      114.410
      11.312       13400.000      236.570      113.530
      11.392       13600.000      205.530      115.170
      11.512       13800.000      222.370      114.280
      11.652       14000.000      217.050      112.400
      11.846       14200.000      207.440      111.090
      11.917       14400.000      189.810      112.850
      12.059       14600.000      146.990      112.080
      12.199       14800.000      235.730      110.110
      12.340       15000.000      178.840      109.130
      12.487       15200.000      187.110      111.020
      12.607       15400.000      157.840      110.040
      12.747       15600.000      248.880      107.850
      12.887       15800.000      214.670      107.000
      13.027       16000.000      205.640      109.000
      13.172       16200.000      194.600      107.810
      13.294       16400.000      156.770      105.530
      13.440       16600.000      178.730      104.230
      13.578       16800.000      229.300      106.130
      13.780       17000.000      257.250      105.630
      13.853       17200.000      237.340      103.690
      13.992       17400.000      238.700      102.420
      14.115       17600.000      269.910      104.440
      14.256       17800.000      235.530      104.410
      14.397       18000.000      262.350      101.560
      14.538       18200.000      210.240      101.190
      14.700       18400.000      252.410      102.440
      14.804       18600.000      216.940      102.520
      14.944       18800.000      203.380       99.690
      15.121       19000.000      228.430       98.440
      15.225       19200.000      237.150      100.260
      15.368       19400.000      211.740       99.990
      15.558       19600.000      274.390       97.530
      15.646       19800.000      230.430       96.720
      15.770       20000.000      219.810       97.900
      15.911       20200.000      167.240       98.300
      16.051       20400.000      175.900       95.080
      16.191       20600.000      177.840       94.940
      16.351       20800.000      216.840       96.350
      16.458       21000.000      200.220       96.540
      16.599       21200.000      142.980       93.430
      16.742       21400.000      235.420       93.090
      16.877       21600.000      202.280       94.500
      17.724       21800.000      233.000       94.910
      17.757       22000.000      206.140       91.930
      17.789       22200.000      206.740       91.370
      17.827       22400.000      156.290       92.570
      17.868       22600.000      185.030       93.220
      17.909       22800.000      229.740       90.130
      17.943       23000.000      194.980       90.020
      17.977       23200.000      170.850       90.900
      18.233       23400.000      168.700       91.110
      18.264       23600.000      272.740       88.360
      18.504       23800.000      241.120       88.040
      18.535       24000.000      195.310       89.040
      18.669       24200.000      222.500       89.490
      18.806       24400.000      244.480       86.740
      18.977       24600.000      194.760       85.730
      19.071       24800.000      179.470       87.550
      19.212       25000.000      339.350       87.670
      19.394       25200.000      193.980       85.270
      19.493       25400.000      235.080       84.630
      19.633       25600.000      175.390       85.980
      19.759       25800.000      243.190       86.110
      20.078       26000.000      342.320       83.270
      20.113       26200.000      278.090       82.760
      20.222       26400.000      268.090       84.110
      20.311       26600.000      194.440       84.580
      20.446       26800.000      217.310       81.640
      20.586       27000.000      262.310       81.240
      20.726       27200.000      274.460       82.600
      20.868       27400.000      282.850       82.390
      21.204       27600.000      235.100       80.040
      21.234       27800.000      215.280       79.540
      21.273       28000.000      210.680       80.800
      21.441       28200.000      209.580       81.170
      21.552       28400.000      300.670       78.470
      21.693       28600.000      232.220       77.540
      21.819       28800.000      170.590       79.690
      22.281       29000.000       97.140       79.520
      22.313       29200.000      202.110       76.720
      22.366       29400.000      217.120       76.670
      22.415       29600.000      207.680       77.860
      22.615       29800.000      289.040       77.790
      22.653       30000.000      228.280       75.320
      22.783       30200.000      237.310       75.400
      22.925       30400.000      270.890       76.350
      23.064       30600.000      232.110       76.300
      23.206       30800.000      380.180       73.740
      23.415       31000.000      281.590       73.700
      23.492       31200.000      360.420       74.770
      23.617       31400.000      265.240       74.960
      23.749       31600.000      307.710       72.510
      23.890       31800.000      355.010       71.710
      24.031       32000.000      180.460       73.670
      24.171       32200.000      256.100       73.310
      24.520       32400.000      280.830       71.420
      24.559       32600.000      368.040       70.850
      24.694       32936.000      234.040       69.540
      24.965       33136.000      199.260       68.980
      25.003       33336.000      234.010       71.250
      25.132       33536.000      225.450       71.010
      25.242       33736.000      254.640       69.130
      25.421       33936.000      242.560       68.900
      25.497       34136.000      218.390       70.220
      25.761       34336.000      200.810       68.560
      25.817       34536.000      333.170       67.890
      25.978       34736.000      193.690       68.880
      26.097       34936.000      180.090       69.530
      26.239       35136.000       95.080       66.450
      26.358       35336.000      225.290       66.340
      26.467       35536.000      245.790       67.780
      26.602       35736.000      181.660       68.520
      28.371       35936.000      229.760       65.250
      28.401       36136.000      224.450       65.150
      28.432       36336.000      326.260       66.480
      28.466       36536.000      305.400       66.150
      28.500       36736.000      269.680       64.080
      28.536       36936.000      220.090       65.300
      28.575       37136.000      263.150       65.090
      28.609       37336.000      254.220       63.350
      28.649       37536.000      166.390       62.710
      28.683       37736.000      213.030       64.710
      28.719       37936.000      217.450       64.170
      28.754       38136.000      193.890       62.220
      28.789       38336.000      159.160       61.360
      28.823       38536.000      168.160       63.260
      28.870       38736.000      143.500       62.950
      28.906       38936.000      230.690       61.220
      29.336       39136.000      295.910       61.030
      29.366       39336.000      337.240       61.720
      29.395       39536.000      279.010       60.430
      29.427       39736.000      202.490       59.480
      29.584       39936.000      127.930       61.050
      29.672       40136.000      132.110       60.870
      29.771       40336.000      209.090       58.370
      29.912       40536.000      195.670       58.200
      30.038       40736.000      134.190       59.780
      30.494       40936.000      158.420       59.490
      30.524       41136.000      215.060       57.700
      30.553       41336.000      173.470       57.310
      30.670       41536.000      167.390       59.080
      30.754       41736.000      123.690       57.590
      30.875       41936.000      298.430       56.870
      31.016       42136.000      197.200       58.020
      31.285       42336.000      134.240       58.060
      31.322       42536.000      187.150       55.120
      31.422       42736.000      218.820       55.310
      31.561       42936.000      192.020       57.130
      31.702       43136.000      173.820       57.070
      31.843       43336.000      194.920       54.490
      31.983       43536.000      191.270       54.110
      32.108       43736.000      197.730       55.390
      32.249       43936.000      174.820       55.340
      32.388       44136.000      146.870       53.310
      32.566       44336.000      173.310       55.030
      32.670       44536.000      184.820       54.760
      32.808       44736.000      163.820       53.170
      32.970       44936.000      171.880       52.040
      33.075       45136.000      107.080       54.200
      33.215       45336.000      165.140       53.490
      33.354       45536.000      192.940       51.700
      33.493       45736.000      199.800       50.790
      33.620       45936.000      229.960       52.840
      33.759       46136.000      179.970       52.250
      34.140       46336.000       92.400       50.790
      34.169       46536.000      164.950       51.000
      34.198       46736.000      241.540       52.060
      34.321       46936.000      270.600       50.270
      34.459       47136.000      201.710       49.910
      34.599       47336.000      197.560       51.330
      34.792       47536.000      120.830       51.170
      34.865       47736.000      154.430       48.730
      35.006       47936.000      159.030       48.490
      35.145       48136.000      104.240       49.900
      35.287       48336.000      127.690       50.430
      35.602       48536.000      176.350       47.880
      35.644       48736.000      136.000       47.970
      35.754       48936.000      109.040       48.950
      36.178       49136.000       74.150       48.490
      36.207       49336.000      148.950       46.820
      36.237       49536.000      166.050       47.810
      36.267       49736.000       84.720       48.020
      36.392       49936.000      199.330       46.240
      36.528       50136.000       95.200       45.900
      36.674       50336.000      121.480       47.770
      36.795       50536.000      146.430       47.860
      36.935       50736.000      114.940       45.100
      37.112       50936.000      200.250       44.250
      37.218       51136.000      197.490       46.090
      37.356       51336.000      160.630       46.960
      37.496       51536.000      136.920       44.000
      37.619       51736.000       83.110       45.100
      37.760       51936.000       94.540       45.540
      37.901       52136.000      184.710       44.550
      38.093       52336.000      127.860       43.560
      38.182       52536.000      208.140       45.330
      38.321       52736.000      152.270       45.200
      38.461       52936.000      189.590       43.440
      38.592       53136.000      158.740       42.260
      38.728       53336.000      234.640       44.580
      38.868       53536.000      227.890       44.360
      39.008       53736.000      143.210       41.840
      39.485       53936.000      133.560       42.050
      39.522       54136.000      194.030       43.300
      39.552       54336.000      147.670       42.540
      39.585       54536.000      115.330       41.120
      39.751       54736.000      123.790       42.350
      39.950       54936.000      174.720       43.110
      39.983       55136.000      138.700       40.840
      40.114       55336.000      175.320       40.090
      40.237       55536.000      100.730       42.090
      40.377       55736.000      170.270       42.320
      40.519       55936.000      158.140       39.480
      40.659       56136.000      161.600       39.290
      40.798       56336.000      181.250       40.960
      40.937       56536.000      147.970       40.980
      41.129       56736.000      178.790       38.700
      41.219       56936.000      185.430       40.340
      41.344       57136.000      172.000       40.400
      41.484       57336.000      255.530       39.220
      41.626       57536.000      235.510       37.930
      41.765       57736.000      175.660       39.440
      42.022       57936.000      208.410       39.740
      42.054       58136.000      184.190       37.360
      42.172       58336.000       85.360       37.280
      42.368       58536.000      142.490       38.530
      42.452       58736.000      138.040       39.330
      42.611       58936.000      224.120       36.780
      42.734       59136.000      228.110       36.980
      42.858       59336.000      224.390       38.120
      43.169       59536.000      148.250       37.660
      43.202       59736.000      177.490       36.260
      43.295       59936.000       47.900       37.900
      43.419       60136.000       80.140       37.610
      43.560       60336.000      139.800       35.670
      43.702       60536.000      126.480       35.010
      43.828       60736.000      205.560       37.410
      43.968       60936.000      162.040       37.010
      44.113       61136.000      162.980       35.290
      44.235       61336.000      100.860       34.200
      44.374       61536.000      130.530       36.490
      44.515       61736.000       82.080       35.980
      44.691       61936.000      132.060       34.490
      44.796       62136.000      147.520       34.540
      44.935       62336.000      130.470       35.630
      45.077       62536.000      147.070       34.310
      45.221       62736.000      119.110       33.700
      45.341       62936.000      150.960       35.290
      45.480       63136.000      198.610       34.900
      45.621       63336.000      125.550       32.970
      45.829       63536.000      151.550       32.810
      45.903       63736.000      128.760       34.410
      46.043       63936.000      103.240       34.680
      46.165       64136.000      122.560       32.320
      46.306       64336.000      138.820       32.270
      46.450       64536.000       75.240       33.650
      46.607       64736.000      117.620       33.380
      46.729       64936.000       73.030       31.680
      46.869       65136.000      120.940       32.950
      47.046       65336.000      122.220       33.230
      47.136       65536.000      151.940       31.970
      47.276       65736.000      115.530       30.820
      47.414       65936.000      144.240       32.870
      47.555       66136.000      153.550       32.490
      47.982       66336.000      131.610       31.670
      48.015       66536.000      189.550       30.420
      48.046       66736.000       76.020       31.480
      48.170       66936.000      122.440       32.090
      48.265       67136.000      172.290       30.180
      48.377       67336.000      197.760       29.810
      48.519       67536.000      163.560       30.990
      48.645       67736.000       94.610       31.160
      48.875       67936.000      151.080       29.910
      48.939       68136.000      111.670       29.220
      49.065       68336.000      120.530       30.400
      49.206       68536.000      192.910       31.130
      49.365       68736.000      323.100       29.440
      49.471       68936.000      450.110       29.180
      49.610       69136.000      450.090       29.920
      49.751       69336.000      392.160       30.460
      49.891       69536.000      334.820       28.970
      50.033       69736.000      360.490       28.370
      50.172       69936.000      356.130       29.130
      50.298       70136.000      344.260       29.750
      50.438       70336.000      401.650       28.180
      50.578       70536.000      431.180       27.830
      50.718       70736.000      426.410       28.770
      50.860       70936.000      335.380       29.520
      50.983       71136.000      335.730       27.950
      51.123       71336.000      328.710       27.270
      51.264       71536.000      377.160       28.470
      51.405       71736.000      522.770       28.860
      51.544       71936.000      512.520       27.080
      51.684       72136.000      411.260       26.390
      51.810       72336.000      399.790       28.130
      51.950       72536.000      495.060       28.320
      52.091       72736.000      477.460       26.210
      52.231       72936.000      442.820       25.860
      52.376       73136.000      416.670       27.380
      52.511       73336.000      421.130       27.690
      52.635       73536.000      424.050       26.020
      52.775       73736.000      440.640       25.460
      52.916       73936.000      473.620       27.080
      53.093       74136.000      397.850       27.060
      53.182       74336.000      509.180       25.500
      53.322       74536.000      824.830       25.380
      53.463       74736.000      885.050       26.350
      53.600       74936.000      957.090       26.660
      53.741       75136.000     1010.090       24.890
      53.882       75336.000     1141.730       24.770
      54.023       75536.000     1297.270       25.850
      54.152       75736.000     1592.590       26.280
      54.289       75936.000     1397.030       24.390
      54.426       76136.000     1210.370       24.050
      54.566       76336.000     1306.200       25.690
      54.708       76536.000     1301.720       25.790
      54.847       76736.000     1266.370       23.360
      54.973       76936.000     1252.870       23.460
      55.114       77136.000     1251.580       25.320
      55.253       77336.000     1676.310       24.980
      55.396       77536.000     1918.600       22.880
      55.571       77736.000     2453.010       22.880
      55.660       77936.000     3003.530       24.850
      55.800       78136.000     3284.410       24.180
      56.223       78336.000     3906.230       22.630
      56.257       78536.000     4183.080       21.870
      56.289       78736.000     4800.000       24.620
      56.426       78936.000     5139.080       23.840
